BEGIN IONS
TITLE=File924 Spectrum909 scans: 1292
PEPMASS=837.71057 0.00000
CHARGE=3+
RTINSECONDS=395
SCANS=1292
220.552 8.28209
221.394 4.08358
222.128 2.47565
223.145 8.15167
224.062 4.77901
225.064 9.80299
226.475 7.57173
227.570 9.03522
228.626 2.38382
229.292 2.9252
229.893 1.99038
230.512 4.95661
231.221 2.10718
232.228 6.1653
233.128 3.673
233.836 2.81228
234.476 3.15607
235.109 2.97897
235.789 3.12616
236.398 2.37076
237.043 5.55686
237.721 2.30121
238.742 7.06597
239.687 6.75206
240.293 5.08502
240.972 2.50348
241.623 2.481
242.654 7.87341
243.575 2.53097
244.214 2.70335
244.868 3.88053
245.999 6.59425
247.055 8.31034
248.117 2.25056
249.190 7.50533
250.031 4.29668
250.720 2.47593
251.697 8.15609
252.645 5.98714
253.273 4.87029
253.963 3.45179
255.027 9.46705
255.900 5.30063
256.532 4.40217
257.551 9.09756
258.625 5.3182
260.119 12.4571
261.426 7.47319
262.364 5.38597
263.065 3.37397
263.699 2.97653
264.779 7.1096
266.224 4.60936
266.956 3.02315
268.042 7.18752
269.173 9.30697
270.562 7.3369
271.435 4.69354
272.058 6.57712
272.681 6.05723
273.454 2.58502
274.380 11.5569
275.191 2.03514
276.044 3.98122
277.020 6.5363
277.927 5.98496
279.300 2.76317
280.283 6.20485
281.290 6.90684
282.281 8.88369
283.180 2.66965
284.273 6.17164
285.160 2.4191
285.804 2.22452
286.732 6.3874
287.614 4.82518
288.282 5.6107
289.393 8.5831
290.440 5.41788
291.519 4.62815
292.654 7.57576
293.668 5.20814
295.211 9.11248
296.641 9.10521
297.440 4.7519
298.043 4.84222
299.157 7.64576
300.106 3.15602
301.379 2.64901
302.393 7.96126
303.255 3.98916
304.233 10.6162
305.297 2.61705
306.296 6.37382
307.063 1.48324
307.780 4.05579
308.538 2.51455
309.487 6.0744
310.692 9.38179
311.774 3.44715
312.747 9.09416
313.951 15.9674
314.933 5.22766
315.651 2.34684
316.311 12.3347
316.968 3.11419
317.635 1.96195
318.706 6.51152
320.167 4.14215
320.877 2.26632
321.858 6.39291
322.771 4.55378
323.491 2.62797
324.129 2.92551
325.187 4.3125
326.108 3.37358
326.720 2.60119
327.375 3.0365
328.498 6.14763
329.281 4.72141
329.979 2.96563
330.627 2.78288
331.644 7.66727
332.876 8.00393
334.253 6.59985
335.200 5.35212
336.464 2.90529
337.471 8.97073
338.372 7.97141
339.336 11.5223
340.770 7.68123
341.587 5.625
342.283 3.99215
342.969 2.6986
343.965 7.24841
344.891 5.55122
345.846 9.57338
347.260 5.37658
348.139 5.20926
349.082 9.13455
350.487 7.45021
351.817 5.53289
352.714 3.07451
353.670 6.47735
354.998 10.7733
355.956 1.20474
356.936 7.63171
357.733 1.75393
358.555 2.0486
359.199 2.90377
360.252 7.39599
361.139 2.96452
361.812 2.26679
362.461 1.81757
363.531 6.0506
364.382 3.24189
365.016 4.00292
366.016 5.73992
367.434 10.7482
368.282 2.88379
369.280 7.43838
370.334 5.30183
371.422 6.92033
372.464 6.15885
373.238 12.1415
374.080 4.93324
374.688 5.38099
375.787 7.76537
377.035 9.10627
378.050 2.72553
378.702 2.56201
379.771 7.59934
380.640 3.17265
381.686 8.74259
382.538 5.21132
383.566 10.6458
384.932 7.09243
386.147 9.7257
387.127 9.95244
388.140 12.7239
389.554 9.78544
390.345 4.08454
391.400 9.53283
392.486 5.47254
393.555 4.36593
394.285 2.33171
395.236 5.65901
396.032 2.32445
396.887 2.63139
397.538 2.27376
398.512 7.0505
399.322 1.02117
400.137 3.03156
400.782 2.26771
401.808 7.47087
403.080 9.75297
403.913 6.44322
405.004 6.71152
405.947 3.46235
406.634 3.11426
407.284 2.49204
408.075 4.68031
409.491 10.5375
410.905 6.98692
411.760 5.27633
412.481 2.48314
413.131 2.25735
414.198 7.43694
415.053 4.9619
415.734 3.68322
416.378 2.30775
417.435 7.92981
418.883 4.65178
419.623 2.7821
420.619 6.03326
421.511 5.28813
422.149 6.43846
423.202 7.07069
424.138 4.49806
425.078 9.1266
426.125 2.2198
427.199 7.37764
428.026 4.19814
428.690 4.23861
429.374 2.57855
430.011 2.63212
430.689 2.45421
431.331 2.89006
431.961 3.19788
432.935 7.19383
433.919 5.41424
434.540 4.92739
435.215 2.31382
435.858 3.49685
436.831 7.09265
437.725 5.23375
438.464 2.69434
439.122 2.21336
439.910 4.35458
441.009 4.91145
441.713 2.57965
442.800 7.39427
444.136 20.3166
444.931 2.72766
446.011 7.7925
447.197 14.3795
448.210 2.8455
449.316 7.91833
450.170 13.4696
451.108 12.1236
452.511 7.304
453.368 4.9207
454.057 3.36711
454.714 3.05818
455.853 7.94767
456.941 11.5861
457.961 2.81123
458.579 2.6423
459.189 6.67374
460.438 4.18809
461.208 3.237
462.323 7.67256
463.109 5.6257
463.801 2.28946
464.452 3.01033
465.085 16.0331
465.726 2.56984
466.659 9.6669
468.030 6.47181
468.969 4.01027
470.148 24.6646
471.300 7.30809
472.207 3.82327
472.892 3.10097
473.544 3.49686
474.200 2.26753
475.324 6.33073
476.104 3.91721
476.792 3.32615
477.847 9.18723
478.705 5.14874
479.397 2.62645
480.040 2.32782
481.045 9.26744
481.795 1.86902
482.648 2.80942
483.298 2.28249
484.282 6.45741
485.126 11.7003
486.222 8.78844
487.185 2.64508
488.320 8.44726
489.089 3.23436
489.792 2.30757
490.852 5.00069
491.689 3.86943
492.357 3.5705
493.375 7.03524
494.776 6.73214
495.508 5.76548
496.275 2.67069
496.935 3.24273
497.933 13.4739
498.881 3.36757
499.856 7.86318
501.133 11.9401
502.132 2.1044
503.087 7.32762
504.085 5.26897
504.694 5.31106
505.382 3.20334
506.032 2.44894
506.909 8.12131
507.880 4.24303
508.633 3.01914
509.755 7.51391
510.841 9.24347
511.878 2.78033
512.895 6.4867
514.140 9.31246
514.984 6.64231
516.123 9.03544
516.898 1.95045
517.638 4.06955
518.380 1.83381
519.277 6.31474
520.316 6.03908
521.307 8.25791
522.203 3.75471
523.011 4.72674
524.142 3.45835
524.874 2.71018
525.844 5.19437
527.096 8.78003
528.122 2.89507
528.767 2.92012
529.570 3.7213
530.999 18.5566
531.912 3.18986
532.581 3.80556
533.229 5.54321
533.970 2.61368
534.924 5.94008
535.867 4.18034
537.021 10.8795
537.870 2.43762
538.715 4.53846
540.050 9.15043
541.111 1.97983
542.152 6.90159
543.214 17.1229
544.760 7.93245
545.478 2.11983
546.569 9.69136
547.931 6.29193
549.181 9.8828
550.212 2.10178
551.096 14.311
552.326 17.2588
553.791 7.87064
555.079 12.2352
556.338 14.2545
557.687 6.50908
558.638 3.77629
559.311 3.06137
560.344 7.65431
561.231 4.29683
561.887 4.91886
562.553 2.04948
563.202 2.88428
563.858 2.11251
564.521 3.0576
565.400 31.0244
566.321 3.35747
567.060 1.94747
567.665 3.38014
568.360 5.13712
569.049 2.53609
569.730 5.48717
570.674 5.10899
571.539 5.17865
572.168 7.04094
573.500 10.9605
574.186 5.76604
575.545 2.74841
576.538 6.06583
577.332 1.28403
578.147 3.40835
578.798 3.18143
579.773 5.63777
581.044 8.81352
581.918 4.87474
582.700 2.81839
583.365 2.89
584.004 3.9535
584.633 2.73266
585.767 10.4254
586.499 5.87188
587.354 19.3596
588.543 2.86532
589.180 2.44819
590.180 21.7826
591.134 2.72938
591.790 2.35619
592.921 6.84489
593.698 4.82849
594.377 2.07193
595.040 3.11117
596.066 7.82303
596.979 3.36997
597.929 9.04815
598.984 6.03109
600.256 26.6723
600.860 2.7168
601.530 1.89853
602.520 6.53608
603.427 2.8312
604.132 2.5477
604.778 1.76905
605.781 6.49371
606.521 2.48318
607.177 16.0209
608.017 2.9712
608.689 3.96587
609.972 2.38799
610.630 2.84073
611.281 2.08662
612.421 16.3758
613.599 9.44929
614.887 6.91465
615.831 5.31524
616.439 4.31592
617.122 2.98885
617.934 16.2448
619.349 9.73261
620.556 16.0085
621.771 5.70391
622.619 12.4696
623.605 2.86881
624.753 7.60627
625.527 5.49105
626.186 6.30361
626.875 2.36801
627.907 7.14907
629.013 10.6543
630.123 3.04889
630.755 3.19364
631.472 6.83369
632.080 2.08292
632.715 2.77404
633.630 8.52903
634.300 46.0157
635.212 4.74543
636.208 14.839
637.363 7.98448
638.840 31.9145
640.158 6.84502
641.165 4.46168
641.774 3.8334
642.467 2.37215
643.497 7.37761
644.382 3.91962
645.060 2.47604
645.720 1.89201
646.365 2.17371
647.402 7.65137
648.182 3.61863
649.300 25.9708
650.664 8.41444
651.557 2.5211
652.208 2.61909
652.846 3.35345
653.937 9.24188
654.803 2.05661
655.460 2.55935
656.492 6.31164
657.747 6.34554
658.924 12.9518
660.667 6.12223
661.297 10.4713
662.250 11.1802
663.265 8.57522
664.594 51.3609
665.744 4.41582
666.458 3.69786
667.150 3.29106
667.792 3.04943
668.451 2.54604
669.300 8.8393
670.320 4.96571
671.424 13.2797
672.520 13.3295
673.608 3.86125
674.295 2.62726
675.347 7.62501
676.170 3.8855
676.789 4.73025
677.540 2.91296
678.588 6.5338
679.749 18.7832
680.790 2.58171
681.781 6.57924
682.695 4.95739
683.853 16.9475
684.956 10.1881
685.891 3.92916
686.841 9.8565
687.712 11.0081
688.418 13.2469
689.599 27.7664
690.531 3.53169
691.690 10.4178
692.404 5.13508
693.767 17.5398
694.451 4.74235
695.403 15.7616
696.323 35.2739
697.430 6.75544
698.670 8.09091
699.482 4.99037
700.216 21.656
701.071 69.6004
702.027 17.5739
702.867 30.1099
703.948 6.79032
705.504 66.7602
706.684 4.95602
707.530 6.18187
708.631 28.635
709.326 3.18273
709.938 4.19225
710.646 1.68988
711.627 9.01571
712.589 11.0992
713.860 41.7121
714.584 3.30575
715.228 2.86986
716.109 15.0079
717.200 27.4137
718.139 8.31477
719.529 67.0053
720.944 24.1448
722.147 20.8855
723.158 9.77528
723.956 22.1925
724.697 15.8581
725.469 29.6732
726.451 11.9714
727.784 9.92633
728.868 2.53853
729.831 4.02989
730.990 53.7472
732.024 4.85877
732.738 1.79345
733.659 11.5934
735.199 21.668
735.963 3.91585
737.258 4.84916
737.962 2.70214
738.994 5.55741
740.297 6.77638
741.533 8.82316
742.524 46.2088
743.760 6.29251
744.817 6.18769
745.908 3.49189
746.922 5.05812
747.706 2.91762
748.738 6.68951
749.631 4.12589
750.308 2.24163
751.314 33.4263
752.312 11.9985
753.677 26.1531
755.277 7.60561
756.510 31.4614
757.463 57.4644
758.537 10.4485
759.744 9.29739
761.424 49.3909
762.552 5.09297
763.310 22.803
764.239 7.04306
765.401 13.3828
766.548 2.70045
767.861 38.5775
769.038 5.48249
769.800 2.41434
770.446 2.24062
771.120 3.15627
772.109 53.5246
773.036 32.392
774.157 54.7947
775.859 49.3487
776.869 2.09587
777.574 4.93529
778.203 5.27407
779.405 48.5991
780.399 34.6112
781.321 5.7871
782.281 69.1049
783.156 12.3848
784.046 3.64187
785.677 17.3957
786.653 47.1756
787.604 52.2187
788.240 36.632
789.353 56.218
790.117 22.9264
790.903 24.9764
791.964 5.93355
792.799 61.534
793.686 67.851
795.020 24.2684
796.175 15.0818
796.792 28.1281
797.633 48.7069
798.821 28.8158
799.666 3.14304
800.272 5.82621
800.970 31.0458
801.954 38.045
803.282 64.9803
804.142 5.88661
805.047 35.9268
806.494 37.5812
807.382 2.76048
808.992 91.9108
809.619 24.8845
811.286 43.5927
812.150 34.5824
813.321 3.86743
813.937 3.5624
814.625 2.71682
815.572 6.86909
817.213 3.21781
817.871 2.30372
818.884 6.66058
819.639 1.67032
820.657 16.4952
821.722 4.35448
822.433 2.86882
823.072 2.83529
823.711 2.421
824.373 2.74938
825.007 2.29792
826.325 2.95544
826.962 2.26995
827.612 1.03805
828.599 4.7245
829.508 3.24684
830.108 4.61261
831.313 6.91627
832.182 3.37371
832.826 2.57959
833.469 2.61564
834.117 2.54465
835.136 6.9302
836.388 17.8042
837.266 4.4943
838.032 17.6403
839.633 20.1748
840.963 7.55931
841.703 2.0515
842.556 2.87608
843.552 7.70722
844.698 9.45841
845.749 2.99382
846.450 1.70462
847.550 11.9377
848.664 8.64865
849.705 2.41376
850.337 10.1393
851.473 1.5379
852.284 7.38461
852.950 2.31517
854.011 4.71997
854.862 4.33533
855.483 4.38924
856.585 10.8438
857.471 1.95427
858.420 9.93475
859.250 19.088
860.598 43.0999
861.735 8.26648
863.014 6.40727
863.995 4.03711
864.936 9.76876
865.947 1.77579
867.077 6.74181
867.874 4.1908
868.941 7.0623
870.342 5.8284
871.114 4.55742
871.789 2.19126
872.779 5.92448
873.535 2.27617
874.326 4.18136
875.045 3.50183
875.727 2.41417
876.476 23.1362
877.837 8.34122
879.252 7.48876
880.549 9.21022
881.469 36.0516
882.420 15.7649
883.443 3.73824
884.468 10.9219
885.288 12.1279
885.953 13.1465
886.952 17.0867
888.040 2.06464
889.014 7.44779
889.852 4.30116
890.634 2.84909
891.285 2.70099
892.106 4.21597
893.573 8.87001
894.746 34.2197
896.183 12.172
897.132 3.03125
897.769 2.82371
898.445 3.49954
899.451 9.95306
900.775 18.0679
901.489 12.8381
902.152 1.58294
902.885 4.50428
903.621 2.30672
904.671 6.39066
906.135 4.18945
906.879 2.71251
908.316 25.9031
909.480 2.20837
910.124 2.18416
911.146 4.1151
912.405 6.44655
913.710 7.07522
914.583 3.76378
915.269 4.16739
915.965 2.70217
916.612 2.44465
917.713 7.28819
918.554 5.18571
919.215 2.17508
920.267 8.77114
921.466 13.4167
922.437 19.1533
923.458 7.25893
924.716 11.6483
925.570 6.8865
926.275 5.40708
926.939 4.34818
928.288 25.5085
928.914 5.3373
930.141 11.2286
930.865 4.74461
932.046 30.1252
933.200 8.09476
934.138 3.7357
934.813 2.79159
935.460 2.27886
936.457 3.73049
937.392 3.48148
938.068 2.7132
938.708 2.64305
939.358 1.60404
940.731 22.6027
941.960 2.7383
942.640 20.2075
943.453 20.3609
944.512 18.9806
945.470 17.2627
946.799 8.97015
947.690 5.61125
948.755 5.44301
949.675 4.04896
950.387 5.89842
951.556 26.7662
952.520 35.9995
953.473 2.26732
954.188 5.80945
955.068 10.7165
956.193 5.01141
957.187 9.22388
958.191 3.59189
959.153 5.11222
960.045 4.75881
960.793 2.69541
961.843 18.7436
963.038 11.1123
964.043 2.64754
965.132 8.76149
965.939 4.90033
966.862 12.2079
968.407 6.28708
969.254 4.91503
970.248 17.5891
971.677 31.5431
972.768 11.2347
973.794 2.69866
974.866 7.06345
976.726 8.91496
977.986 6.89791
978.817 1.29685
979.635 3.0526
980.652 6.50568
981.582 4.6309
982.200 4.30621
982.884 2.74076
983.536 2.67853
984.546 10.5993
985.274 1.69872
986.139 2.34365
986.784 3.3451
987.795 6.35172
988.547 11.6544
989.385 2.22726
990.414 21.7687
991.332 5.37951
991.942 4.35607
992.968 15.8663
993.874 3.49613
995.154 4.22421
996.355 18.3775
997.755 6.78405
998.697 9.23558
1000.226 9.13688
1001.361 10.2825
1002.256 6.53868
1003.408 5.95219
1004.676 7.31659
1005.633 4.46074
1006.722 9.8831
1007.835 12.3469
1008.751 5.9467
1009.450 5.92675
1010.401 8.33745
1011.132 14.6159
1012.456 7.26338
1013.795 8.57381
1014.728 2.4741
1015.566 28.7442
1016.653 4.57029
1017.303 4.10097
1017.969 2.57511
1018.612 2.61412
1019.432 20.5322
1020.461 6.30137
1021.212 2.52236
1021.856 3.40032
1022.984 6.25613
1024.177 12.0022
1025.117 2.3481
1026.197 12.2636
1027.084 7.9498
1027.689 3.79748
1028.364 2.05924
1029.430 7.11568
1030.638 7.20437
1032.041 7.80771
1032.877 5.44295
1033.538 9.213
1034.591 8.01014
1035.426 3.79984
1036.373 7.51549
1037.174 17.4543
1038.406 16.5905
1039.227 1.8125
1040.008 18.5037
1041.041 6.47294
1042.102 5.94972
1043.296 2.85478
1043.956 2.84738
1044.941 6.52508
1045.797 5.61835
1046.439 5.80427
1047.542 8.75677
1048.483 22.5582
1049.667 6.35957
1051.090 16.2339
1051.782 2.66808
1052.407 3.30601
1053.045 2.46736
1054.160 6.66755
1054.955 5.79852
1055.666 2.70823
1056.296 2.85161
1057.300 6.61655
1058.168 2.48989
1058.835 4.26371
1059.545 2.38128
1060.201 2.51623
1061.276 13.5502
1062.153 2.89394
1062.785 3.18174
1063.441 1.69303
1064.294 4.341
1065.323 5.27696
1066.389 7.02074
1067.466 5.10186
1068.888 10.3395
1070.133 11.7658
1071.187 4.761
1071.887 2.55285
1072.544 2.48897
1073.242 1.92018
1075.698 15.4983
1076.857 16.6093
1077.537 2.08569
1078.385 2.4353
1079.002 13.8812
1079.674 2.87681
1080.646 7.31497
1081.631 2.79012
1082.278 2.51867
1083.264 6.57535
1084.125 4.24285
1084.808 3.91523
1085.924 8.45972
1087.401 7.82071
1088.094 3.02292
1088.773 2.8614
1089.415 3.22369
1090.019 5.59061
1090.666 4.40046
1091.617 16.6911
1092.594 5.1177
1093.655 9.49274
1094.631 2.6325
1095.285 2.2267
1096.456 20.9928
1097.161 4.64191
1097.878 2.51288
1098.931 6.97146
1100.472 2.79379
1101.425 6.30402
1102.399 4.66688
1103.291 9.58499
1104.379 2.96528
1105.489 5.83726
1106.482 13.3578
1107.532 8.49554
1108.582 5.61034
1109.377 1.67164
1110.773 23.9333
1111.898 5.67327
1112.516 4.09862
1113.675 26.8066
1114.656 3.51668
1115.392 4.39553
1115.999 2.67679
1116.723 2.18399
1117.369 1.87738
1117.993 1.92823
1118.922 19.1671
1119.969 2.53614
1120.619 2.28839
1121.244 1.93193
1121.884 4.70591
1122.567 2.70977
1123.219 2.01141
1124.237 7.56278
1124.997 1.40028
1125.805 2.53552
1126.513 10.4898
1127.524 23.8383
1128.672 9.40947
1129.584 7.01028
1130.821 6.27687
1131.592 5.89602
1132.226 4.89155
1133.314 8.91454
1134.279 3.11902
1135.219 7.42364
1136.547 9.86631
1137.444 1.92416
1138.820 3.38185
1139.457 2.00977
1140.407 6.06271
1141.358 8.29527
1142.201 40.7411
1143.828 6.9226
1144.568 8.71084
1145.297 3.58457
1146.268 6.12478
1147.203 5.5576
1148.232 7.70151
1149.515 6.30567
1150.496 4.35073
1151.443 18.3057
1152.385 6.82368
1153.128 2.07482
1154.409 3.18715
1155.047 2.61481
1156.044 6.06686
1156.824 1.76366
1157.909 23.8443
1159.305 6.42833
1160.840 2.54451
1161.542 2.2065
1162.185 2.34154
1162.831 2.22006
1163.453 5.07924
1164.152 2.54101
1165.100 6.8798
1166.469 7.95833
1167.269 4.8294
1168.393 7.25796
1169.313 5.37341
1170.334 14.2017
1171.655 7.73564
1172.508 4.0418
1173.155 4.46341
1173.784 6.5888
1174.541 3.3171
1175.562 8.9039
1176.495 3.34306
1177.132 3.09041
1177.782 2.66549
1178.799 6.70109
1179.972 10.902
1181.391 5.91279
1182.330 4.51919
1183.274 8.79829
1184.668 8.18477
1185.559 6.54763
1186.194 3.46692
1186.878 2.3581
1187.533 2.18469
1188.589 6.65038
1189.859 7.18596
1190.772 2.75775
1191.585 3.7672
1193.059 7.97273
1193.934 3.94191
1194.586 3.96892
1195.283 3.9836
1195.984 2.34424
1196.624 2.38026
1197.269 3.35765
1197.952 2.56697
1199.133 5.56292
1199.871 2.46145
1200.530 2.12592
1201.437 3.60427
1202.472 2.24435
1203.128 2.4769
1203.790 3.13253
1204.392 2.00744
1205.041 4.72156
1205.720 3.00035
1206.376 2.86486
1207.396 6.09836
1208.143 1.8529
1208.967 2.31036
1210.006 7.34911
1210.830 3.81872
1211.870 11.3735
1213.161 7.48677
1214.150 4.15455
1214.879 6.7037
1215.615 17.6223
1216.691 3.92053
1217.427 5.00688
1218.032 4.85331
1218.708 2.34893
1219.773 6.74159
1221.857 3.35489
1222.607 3.01989
1223.521 7.26759
1224.538 6.2705
1225.178 2.78573
1226.198 6.72099
1226.991 1.70503
1228.136 8.95101
1229.033 5.3106
1229.849 5.77211
1230.996 4.65345
1231.993 7.94264
1232.909 3.54991
1233.678 6.65264
1234.279 3.95897
1234.960 2.25977
1235.949 5.38268
1236.740 1.31106
1237.489 5.44248
1238.206 2.06338
1239.236 7.2024
1240.386 8.46179
1241.459 2.25638
1242.461 4.51745
1243.768 6.63514
1244.708 2.31406
1245.629 7.10153
1246.882 11.3594
1247.814 11.1248
1248.529 4.41238
1249.253 4.97695
1250.154 9.92697
1251.565 8.93643
1252.485 6.69194
1253.129 5.3305
1253.801 2.42467
1254.848 8.23055
1255.706 4.13589
1256.399 3.70991
1257.051 3.11718
1257.694 1.7094
1258.635 6.58807
1259.543 4.80317
1260.295 3.30718
1260.941 1.93905
1261.564 2.19176
1262.491 10.8085
1263.538 4.2322
1264.632 8.12115
1265.414 4.66246
1266.131 3.2071
1266.795 2.98451
1267.854 5.45564
1268.714 5.08704
1269.394 2.12598
1270.048 2.46073
1270.939 4.90871
1272.003 5.66654
1272.975 10.5043
1273.843 4.19866
1274.500 3.11577
1275.205 4.9038
1275.887 3.63271
1276.540 2.5268
1277.593 6.01085
1279.486 8.90777
1280.330 4.43036
1281.067 6.81417
1281.708 4.92153
1282.381 2.92174
1283.033 2.52791
1283.661 2.62075
1284.307 5.00193
1285.632 2.21022
1286.290 2.83774
1287.290 5.77213
1288.073 1.18903
1288.875 2.96097
1289.525 3.16062
1290.500 6.84623
1291.396 6.50323
1292.127 3.16605
1292.761 2.64018
1293.841 6.28035
1294.621 6.68324
1295.714 7.59166
1296.848 5.16286
1297.793 4.42467
1298.626 2.31782
1299.288 2.3668
1300.226 7.9246
1301.100 5.19113
1301.865 3.69195
1302.993 7.67761
1304.086 9.01444
1305.125 3.36667
1306.043 5.10642
1306.985 5.92484
1307.593 5.56543
1308.776 7.95126
1309.799 5.96463
1310.968 2.65941
1311.757 16.6252
1312.906 3.37943
1313.874 9.7106
1314.875 2.03028
1315.489 2.30173
1316.169 4.82904
1317.060 9.6959
1318.112 2.88574
1319.083 5.02179
1320.003 2.54554
1320.717 2.67739
1321.365 2.43937
1322.226 3.99321
1323.315 2.52199
1324.317 7.51699
1325.351 6.75116
1326.484 4.57831
1327.496 15.66
1328.537 2.5623
1329.805 2.63376
1330.460 2.55227
1331.542 6.83325
1332.699 18.6858
1333.710 3.37154
1334.791 6.71669
1335.627 4.51431
1336.301 2.73891
1337.316 7.75303
1338.193 5.51178
1339.233 7.7116
1340.541 6.74338
1341.518 8.16871
1342.182 2.7725
1342.805 2.64397
1343.454 2.95532
1344.560 8.00024
1345.373 5.18477
1346.053 2.50816
1346.703 2.8818
1347.686 5.0031
1348.604 2.61362
1349.294 2.33865
1350.243 7.47314
1351.065 2.13809
1352.264 8.63058
1353.197 1.68018
1353.874 2.01636
1354.514 3.47853
1355.152 2.49073
1355.791 2.66961
1356.441 1.45082
1357.256 3.109
1358.393 2.29342
1359.050 2.61378
1359.684 2.63597
1360.518 3.15963
1361.642 2.21962
1362.664 5.85991
1363.868 2.47066
1364.775 5.48234
1365.541 2.36349
1366.193 2.27396
1366.868 2.34667
1368.129 2.91235
1369.174 5.73349
1369.992 3.27577
1370.984 9.56628
1372.379 7.71449
1373.264 4.7126
1373.934 5.17887
1374.634 2.69483
1375.293 2.56905
1375.921 1.68576
1376.595 13.8785
1377.231 3.18689
1377.879 3.27743
1378.903 7.83058
1379.737 4.63788
1380.398 3.56992
1381.129 2.71877
1381.785 2.64702
1382.726 6.65532
1383.999 10.3859
1385.453 6.47482
1386.315 5.3236
1386.938 4.29036
1387.631 3.33427
1388.641 6.76105
1389.510 5.41346
1390.236 3.31716
1390.874 2.45703
1391.880 6.03906
1392.803 3.69314
1393.473 2.8919
1394.124 2.84135
1395.103 6.8227
1396.612 3.79078
1397.363 3.49694
1398.432 5.07722
1399.899 5.66137
1400.628 2.05275
1401.284 1.90951
1402.150 3.95901
1403.219 2.60608
1403.867 2.08077
1404.528 2.32291
1405.193 2.78456
1406.345 6.26062
1407.116 3.00792
1408.092 6.60819
1408.947 4.68895
1409.723 2.00566
1410.374 2.67076
1411.355 6.87466
1412.284 4.53636
1412.964 2.77238
1413.618 2.39692
1414.633 6.34351
1415.356 1.78154
1416.213 2.66573
1416.860 2.72295
1417.711 5.23684
1418.738 4.09865
1419.463 3.01073
1420.445 6.68079
1421.694 9.18437
1423.101 8.7789
1423.957 4.16448
1425.070 22.6574
1425.959 2.71093
1426.612 2.05012
1427.747 8.99759
1428.520 3.99377
1429.210 2.34257
1430.275 7.15178
1431.731 5.52232
1432.460 2.46234
1433.102 2.97713
1433.789 2.45174
1435.066 2.56245
1435.710 2.17504
1436.735 6.47072
1437.453 2.04515
1438.302 2.7039
1438.943 2.92753
1439.887 4.73227
1440.835 3.73585
1441.551 2.54404
1442.618 7.56846
1443.483 4.41594
1444.117 3.97917
1444.800 2.53166
1445.795 7.41103
1446.731 3.70818
1447.694 8.52914
1448.946 6.79126
1450.646 2.71802
1451.298 2.31732
1451.934 2.91514
1452.648 1.75029
1453.883 3.16412
1454.546 2.8896
1455.484 6.01446
1456.776 10.656
1457.799 2.3697
1458.750 6.1861
1459.491 9.30796
1460.274 6.41361
1461.038 2.19377
1462.528 23.8135
1463.544 5.49486
1464.290 2.83238
1465.295 6.47324
1466.063 1.96727
1467.225 9.0568
1468.114 5.188
1468.924 5.32774
1470.026 5.81315
1470.778 2.60429
1471.768 9.99925
1472.517 2.57034
1473.382 2.67266
1474.333 6.68995
1475.287 4.73349
1475.981 2.59083
1476.637 3.40859
1477.293 2.41112
1478.122 3.33431
1479.177 5.46205
1479.886 2.78799
1480.837 4.89331
1482.483 2.86424
1483.134 2.32028
1483.785 2.23845
1484.452 2.59534
1486.374 2.60754
1487.468 7.23915
1488.615 9.69706
1489.856 11.1405
1491.026 4.82866
1492.224 2.65701
1492.880 2.79861
1493.916 6.18615
1494.616 2.04823
1495.770 10.6494
1496.768 2.81599
1497.448 2.70005
1498.385 8.47281
1499.372 1.90345
1500.387 8.68102
1501.658 6.75177
1502.624 2.29573
1503.568 6.35177
1504.478 6.10838
1505.211 2.73367
1506.264 9.25693
1507.129 4.0434
1507.827 3.51055
1508.464 3.61548
1509.489 6.24928
1510.365 5.05543
1511.344 10.8533
1512.708 8.95614
1513.661 3.8058
1514.624 9.59751
1515.526 5.56297
1516.190 3.81737
1516.869 4.40866
1517.555 2.46854
1518.208 2.50885
1518.861 1.75802
1519.818 7.07146
1520.706 4.97631
1521.456 2.77625
1522.539 5.59596
1524.068 2.11673
1525.064 7.4357
1525.933 4.49013
1526.876 10.457
1527.959 2.60064
1528.935 5.61479
1529.864 5.60838
1530.552 2.84017
1531.521 6.99118
1532.437 5.11831
1533.366 9.99304
1534.454 2.38217
1535.479 5.95306
1536.832 6.68461
1537.706 2.77299
1538.608 7.7669
1539.534 5.67334
1540.183 5.33382
1540.950 2.45196
1541.594 2.41543
1543.128 12.6327
1544.645 12.5329
1546.068 4.27322
1546.788 3.98765
1548.044 11.4408
1549.088 8.17057
1549.938 5.88302
1551.107 6.56894
1551.992 5.73555
1552.922 10.8385
1554.366 7.57812
1555.526 10.419
1556.399 5.74624
1557.117 4.9629
1557.890 6.07149
1559.144 2.62783
1559.795 2.4624
1560.835 4.62731
1561.573 1.35345
1562.397 2.84615
1563.039 2.41933
1563.672 2.18152
1564.458 6.72089
1565.635 2.54424
1566.291 3.04409
1567.408 6.54702
1568.514 8.43904
1569.903 6.14044
1570.756 4.32672
1571.388 4.78181
1572.134 2.3874
1572.781 2.72648
1573.906 8.56049
1574.681 4.28273
1575.380 2.35972
1576.039 2.62595
1577.076 7.61921
1578.630 2.53572
1579.682 6.48918
1580.783 5.54218
1581.884 2.23985
1582.536 2.8911
1583.523 5.52262
1584.434 2.82086
1585.136 2.21766
1586.188 6.02719
1587.654 5.44113
1588.380 2.75713
1589.457 6.71276
1590.286 5.37285
1590.973 2.62336
1592.012 8.76243
1592.859 5.0787
1593.566 7.13147
1594.182 4.35379
1594.873 2.3421
1595.862 6.93936
1596.772 3.91559
1597.469 2.68245
1598.124 2.49424
1598.778 2.28392
1599.439 2.92996
1600.638 4.42366
1601.798 11.5388
1602.609 5.26327
1603.967 2.17751
1604.622 1.93882
1605.593 6.24139
1606.489 4.35916
1607.128 3.50774
1607.869 2.07167
1608.807 5.64659
1609.598 2.54074
1610.469 2.42134
1611.125 2.79574
1612.102 9.33781
1612.839 2.53998
1613.713 2.86285
1614.725 5.28661
1615.958 8.71085
1616.962 2.74006
1617.602 2.36439
1618.749 6.76215
1619.857 9.31427
1620.849 2.43445
1621.837 6.35837
1622.685 4.91358
1623.459 2.97394
1624.441 7.74109
1625.376 3.55909
1625.977 3.76041
1627.065 7.65092
1627.893 4.3701
1628.898 8.45535
1630.319 6.13473
1631.601 14.3437
1632.555 1.92714
1633.542 8.5192
1634.426 3.94113
1635.092 5.26521
1635.802 2.70876
1636.447 3.24919
1637.438 5.8377
1638.404 6.16379
1639.010 3.20199
1639.704 2.60887
1640.373 2.8628
1641.574 4.25116
1642.301 2.54912
1643.384 6.07463
1644.472 4.24977
1645.550 3.02683
1646.201 2.64634
1647.165 5.39003
1648.021 3.99895
1648.796 2.56744
1649.839 6.98705
1651.310 5.02741
1652.043 2.954
1652.703 1.98285
1653.834 7.48327
1654.610 3.64127
1655.294 2.47815
1655.925 3.43473
1656.814 2.52083
1657.883 2.86491
1658.940 8.00803
1659.868 2.29901
1660.501 3.93863
1661.132 1.75245
1661.794 2.60774
1662.432 3.04808
1663.083 4.48568
1663.713 4.68338
1664.387 2.16988
1665.045 3.14275
1665.985 5.56762
1667.171 9.61265
1668.296 2.25672
1669.230 5.24492
1670.481 10.8778
1671.919 7.44785
1673.016 4.6073
1674.135 2.29213
1675.128 6.65842
1676.429 8.55881
1677.380 2.9938
1678.413 6.78734
1679.288 4.25643
1680.006 2.12618
1680.630 2.44241
1681.285 2.21937
1682.238 4.69267
1683.184 3.34702
1683.878 3.26815
1684.526 1.62703
1685.143 2.38095
1686.115 8.61272
1687.126 2.05403
1687.776 2.18261
1688.402 1.76517
1689.063 5.51226
1689.711 3.67955
1690.377 1.52892
1691.037 2.33754
1691.714 1.84811
1692.971 2.13779
1693.633 1.7143
1694.604 4.26631
1695.567 6.78809
1696.198 3.08025
1696.878 2.54631
1697.890 4.34153
1698.784 5.22273
1699.476 2.16558
1700.127 3.06434
1701.102 5.87447
1702.005 4.08939
1702.723 2.66588
1703.732 7.76294
1705.055 8.59768
1705.849 5.95817
1706.917 4.91396
1707.883 4.60564
1709.115 4.59866
1710.219 5.95038
1711.412 9.50803
1712.463 2.74223
1713.598 8.28906
1714.409 6.8919
1715.048 4.46566
1715.708 2.79584
1716.682 7.59875
1717.669 6.59959
1718.271 4.72761
1719.315 8.94712
1720.210 4.05011
1721.882 7.84791
1722.860 1.64244
1723.851 7.02791
1724.746 3.12754
1725.463 3.16432
1726.378 6.97209
1727.597 10.0801
1728.709 2.23279
1729.726 7.35533
1730.980 5.64565
1731.956 2.34166
1733.010 6.16027
1733.913 2.69763
1734.562 2.3189
1735.208 2.84254
1736.318 4.44504
1737.127 4.12612
1737.804 2.82754
1738.779 5.74088
1739.732 4.37989
1740.368 3.48946
1741.050 2.76754
1742.038 6.59439
1742.981 4.36256
1743.616 3.60063
1744.300 3.09977
1745.361 6.41707
1746.266 2.8138
1746.913 3.67006
1747.548 2.61553
1748.199 1.99363
1748.828 2.07264
1750.081 5.06449
1750.797 3.47221
1751.821 6.91207
1752.553 2.08795
1753.307 4.84738
1754.398 8.42296
1755.258 4.1353
1755.918 5.15929
1756.545 5.12672
1757.296 2.71083
1758.351 6.63501
1759.554 8.77874
1760.387 6.60247
1761.527 8.92181
1763.131 3.08085
1763.787 2.51124
1764.827 6.56995
1765.574 1.059
1766.401 2.21016
1767.035 1.67648
1768.024 4.32189
1768.957 7.04994
1769.597 3.01176
1770.286 2.13045
1771.263 5.16467
1772.527 8.52487
1773.921 6.36003
1775.179 8.54115
1775.987 5.76932
1776.779 2.77445
1777.874 5.7309
1778.740 2.88124
1779.761 8.39045
1780.646 1.31458
1781.895 3.85225
1782.629 2.49542
1783.268 2.20178
1784.189 3.64235
1785.220 2.1665
1785.873 2.69975
1786.526 1.82908
1787.214 2.55529
1788.406 4.29313
1789.126 2.97651
1789.771 3.11385
1790.754 9.73162
1791.624 4.52325
1792.729 7.17365
1793.642 2.27498
1794.554 10.7931
1795.969 7.90652
1796.985 6.18642
1798.105 4.63282
1798.869 2.06495
1799.834 5.4121
1801.071 9.95551
1801.994 8.13349
1803.086 5.37796
1804.387 6.47575
1805.378 2.96247
1806.354 7.18741
1807.284 3.83946
1807.961 2.49168
1808.604 2.76042
1809.623 5.98062
1810.356 2.12903
1811.096 5.42876
1812.138 4.88575
1813.462 9.0985
1814.464 2.62859
1815.111 2.21314
1816.075 7.15309
1816.939 4.35205
1818.004 6.50949
1819.442 7.05002
1820.245 4.66762
1820.962 2.86644
1821.610 1.99661
1822.436 3.717
1823.548 2.58322
1824.208 2.32206
1824.852 2.80198
1825.683 4.45851
1826.804 2.66397
1827.460 2.47086
1828.086 1.74179
1828.762 4.72451
1829.647 11.2772
1830.706 2.51656
1831.773 5.36958
1832.468 1.7925
1833.300 2.81111
1834.315 8.47782
1835.165 4.43111
1835.858 5.14937
1836.550 2.8238
1837.507 7.5771
1838.517 4.24727
1839.436 11.4049
1840.736 7.86151
1841.752 5.10678
1842.354 3.86392
1843.046 3.07249
1844.047 7.49801
1844.821 1.64822
1845.580 4.43469
1846.295 2.88658
1847.256 7.35554
1848.196 5.64706
1848.903 3.05783
1849.547 2.98144
1850.204 2.85504
1850.809 2.38061
1851.466 3.71611
1852.150 2.36355
1852.795 2.39613
1853.446 1.62627
1854.250 3.65809
1855.287 4.40847
1856.041 2.6313
1857.018 6.14541
1857.931 6.22251
1858.606 3.73491
1859.295 2.72752
1860.256 5.94438
1861.031 2.31189
1861.811 4.21631
1862.545 2.23003
1863.178 2.71262
1864.323 9.03332
1865.096 3.53771
1866.191 7.82241
1866.995 4.63216
1867.971 9.24634
1869.035 2.95377
1870.035 5.66283
1871.264 10.7573
1872.284 2.29845
1872.930 3.31749
1873.608 2.67248
1874.876 2.59491
1875.923 6.19882
1876.853 2.66616
1877.490 2.53808
1878.127 2.23187
1879.170 7.11381
1880.440 7.42502
1881.705 6.99305
1883.052 9.39622
1883.984 2.58129
1884.629 2.7509
1885.590 7.40472
1886.406 1.76805
1887.219 2.39455
1887.877 2.40339
1888.863 6.96945
1889.791 4.41073
1890.458 3.23389
1891.120 2.16044
1892.119 7.17951
1893.036 3.4849
1893.723 1.90409
1894.793 7.68462
1895.849 3.60664
1896.969 2.78644
1897.620 2.20449
1898.624 5.95901
1899.812 10.8759
1901.241 7.62352
1901.999 1.36622
1903.470 1.93631
1904.110 2.6101
1904.796 2.41857
1905.997 5.87018
1906.714 2.63309
1907.686 5.2528
1908.638 3.24192
1909.325 1.89451
1909.964 2.45898
1910.952 5.24917
1912.908 7.97709
1913.855 2.11986
1915.001 8.76721
1915.763 4.36423
1916.449 2.59522
1917.520 6.97072
1918.755 8.42703
1919.711 2.60581
1920.775 4.4063
1921.925 7.25118
1923.256 6.97486
1924.399 7.19333
1925.552 2.71208
1926.212 2.67366
1927.143 7.54127
1928.370 9.38046
1929.860 6.46516
1930.919 2.94075
1932.054 2.06274
1932.704 2.06591
1933.680 4.72363
1935.305 2.52418
1936.316 6.75633
1937.198 4.66519
1937.911 2.61647
1938.547 2.72178
1939.471 6.18259
1940.876 6.18652
1941.803 2.01583
1942.449 1.84503
1943.116 3.53279
1944.311 4.8615
1945.049 1.82694
1946.072 6.86075
1946.825 1.6284
1947.655 1.92764
1948.295 2.52937
1949.331 6.93341
1950.211 4.8648
1950.909 1.55905
1951.539 1.39288
1952.192 1.61861
1952.878 2.01173
1954.149 2.39535
1954.799 2.90447
1955.446 2.00169
1956.556 8.89274
1957.350 3.67515
1958.395 7.57879
1959.342 5.8567
1960.246 9.61491
1961.286 3.50754
1962.353 6.68406
1963.509 9.45823
1964.535 2.47437
1965.641 7.77082
1966.771 10.3972
1967.784 2.32678
1968.774 5.2953
1969.691 4.09662
1970.384 2.48502
1971.036 3.05586
1971.703 2.9239
1972.661 7.777
1973.627 2.45555
1974.633 3.66377
1975.906 4.97922
1976.891 2.19859
1977.530 2.48883
1978.216 2.27716
1979.477 1.93267
1980.127 2.8657
1980.766 2.52148
1981.495 1.68134
1982.723 2.69183
1983.373 2.61489
1984.190 3.41115
1985.114 1.93694
1985.973 2.45582
1986.625 2.4275
1987.598 5.8278
1989.005 6.92532
1990.230 5.86432
1991.340 4.0202
1992.377 4.31676
1993.121 1.90177
1994.053 6.78072
1995.717 2.63058
1996.714 6.08831
1997.983 9.09029
1998.965 2.3252
1999.622 2.22405
END IONS

BEGIN IONS
TITLE=Cmpd 1, +MSn(732.2648), 11.7 min
PEPMASS=732.2648 10281.0
CHARGE=2+

209.7317 789.0000
224.8084 1417.0000	3+
258.0278 1165.0000
259.9548 916.0000	1+
261.8788 2252.0000	1+
263.9306 893.0000
269.8891 1016.0000
271.9274 544.0000
276.9276 649.0000
289.8026 746.0000
331.0529 817.0000
361.0840 2895.0000	1+
387.1314 385.0000	1+
394.5523 959.0000
399.0755 781.0000
417.0516 836.0000	1+
431.8996 799.0000
435.7801 650.0000	1+
446.0314 1090.0000
455.0462 650.0000	2+
484.9758 615.0000	1+
493.1064 4833.0000	1+
497.0529 520.0000
529.1627 1559.0000	1+
530.9279 1025.0000
547.0995 2489.0000	1+
551.9275 1050.0000
564.1848 7091.0000	1+
590.5538 807.0000
601.7265 4141.0000
642.3021 573.0000
658.0690 1478.0000	1+
660.0528 862.0000
665.1772 741.0000
667.5562 832.0000
673.6033 1162.0000
677.6404 2624.0000	1+
678.9104 1058.0000
682.1011 763.0000
683.0531 1451.0000	1+
686.6669 3240.0000
688.3943 630.0000	1+
697.3017 593.0000
699.9272 691.0000
701.2971 2616.0000
702.2230 3096.0000	1+
705.6775 619.0000
710.2099 5453.0000	2+
711.3155 817.0000	1+
712.9239 1110.0000
714.1919 872.0000
714.7034 1243.0000
723.2001 702.0000
764.9272 539.0000
772.4274 799.0000
788.2466 5230.0000	1+
854.0545 639.0000
872.0525 1223.0000
882.2424 1696.0000
884.0521 554.0000
899.3000 4313.0000	1+
917.2423 3899.0000	1+
935.1770 568.0000
953.2094 1127.0000	1+
971.2228 2892.0000	1+
974.1775 415.0000	1+
1016.0539 691.0000
1032.2132 1314.0000
1033.3024 543.0000
1085.2114 2826.0000	1+
1103.3831 3209.0000
1104.2947 2821.0000
1105.0277 529.0000
1188.1209 661.0000
1202.3760 3365.0000	1+
1317.3346 716.0000
1318.2078 862.0000
1335.2211 1231.0000
END IONS

BEGIN IONS
TITLE=Cmpd 5, +MSn(732.2566), 11.8 min
PEPMASS=732.2566 401629.0
CHARGE=2+

192.0524 3472.0000
209.8213 6756.0000
213.8722 3674.0000	1+
224.7794 4658.0000	1+
226.8868 6377.0000	1+
239.9252 1405.0000	1+
261.8540 17761.0000	1+
270.0160 16961.0000	1+
282.0521 2326.0000
288.9271 2464.0000
296.0004 2338.0000	1+
314.9282 2939.0000
326.9269 2344.0000
337.1027 2527.0000	1+
349.1071 4494.0000	1+
361.0151 16283.0000	1+
386.1173 3941.0000
394.6772 4741.0000
412.9756 9209.0000	1+
419.0599 2656.0000	1+
430.9523 3778.0000	1+
431.9924 5002.0000	2+
433.1014 8774.0000	1+
436.2121 8102.0000
438.0498 3279.0000	1+
446.0935 1729.0000	1+
450.0078 6155.0000	2+
457.0546 4479.0000	1+
459.0397 7783.0000	1+
467.2350 3780.0000	1+
472.0523 3003.0000
484.0831 3782.0000	1+
493.1065 44452.0000	1+
504.5521 5180.0000
517.6775 4019.0000
529.1010 3385.0000
530.0264 8507.0000	1+
540.5917 2216.0000	1+
545.6775 3085.0000
547.1839 30866.0000	1+
551.7755 10986.0000	1+
552.1780 9246.0000	2+
556.5527 4019.0000
564.1924 58995.0000	1+
577.9537 3383.0000
580.0545 3615.0000
585.1077 3482.0000
585.6726 3989.0000
591.0523 2903.0000
593.0266 7585.0000
601.6748 72323.0000	2+
613.5518 2467.0000	1+
640.1600 5343.0000	1+
650.3023 3948.0000
654.2600 2272.0000
658.1995 16569.0000	1+
668.5535 3843.0000
674.1770 2903.0000
676.1752 6279.0000
677.5956 13965.0000	1+
678.7954 4636.0000
681.7189 19305.0000	2+
686.5836 4566.0000
687.1314 9796.0000	1+
692.8020 2450.0000
694.6771 4240.0000
696.3166 2880.0000
699.5521 4094.0000
701.2196 40233.0000	1+
705.6841 3017.0000
706.1729 5525.0000
708.0507 11384.0000	1+
710.3449 21879.0000	3+
711.0310 8430.0000	1+
713.2472 16469.0000	1+
715.4140 9876.0000
723.1471 5675.0000
723.6797 14327.0000	1+
763.1512 3947.0000	1+
770.2199 3058.0000	1+
788.2461 49383.0000	1+
809.1776 2360.0000
856.0725 2945.0000
862.9776 4433.0000	1+
872.3267 2091.0000	1+
881.1783 2485.0000
882.2460 16022.0000	1+
899.2266 37162.0000	1+
917.2083 53556.0000	1+
927.2908 4847.0000
953.2874 4737.0000	1+
957.4270 3467.0000
971.1893 17843.0000	1+
983.4316 3365.0000	1+
1011.3027 2714.0000
1014.1882 3468.0000
1028.2973 8318.0000
1029.0455 4243.0000
1030.5337 2617.0000
1032.2646 28790.0000	1+
1085.4287 3628.0000
1103.3488 35824.0000	1+
1106.3705 6719.0000
1185.4273 4283.0000
1188.1799 3327.0000
1202.3423 23078.0000	1+
1317.3204 19193.0000	1+
1335.2827 7916.0000	1+
END IONS

BEGIN IONS
TITLE=Cmpd 7, +MSn(732.2195), 11.8 min
PEPMASS=732.2195 282789.0
CHARGE=2+

198.8028 783.0000
226.8130 1077.0000
241.1804 1711.0000
244.8034 981.0000
259.0767 1360.0000	1+
261.9452 5475.0000	1+
265.6986 638.0000	3+
269.9424 8574.0000	2+
275.9122 1486.0000
286.0527 1297.0000
343.1574 498.0000	1+
347.0515 725.0000
349.0523 1261.0000
361.0030 6447.0000	1+
403.0805 927.0000
414.1080 2695.0000	1+
419.1675 944.0000
432.1406 2211.0000	1+
436.0658 1338.0000	1+
450.0532 1561.0000
458.9910 834.0000
460.4272 884.0000
484.4481 1025.0000
493.1366 15917.0000	1+
502.2007 1139.0000	1+
517.0527 719.0000
529.1379 1945.0000
546.2059 713.0000
547.1442 9977.0000	1+
552.1672 2912.0000	2+
560.0521 1397.0000
564.1730 11199.0000	1+
572.1664 1596.0000	1+
575.0522 1236.0000
592.6782 1119.0000
593.0655 1262.0000
601.6347 18709.0000	2+
612.1522 1168.0000
614.0526 805.0000
633.1831 884.0000
638.1127 1587.0000	1+
641.1029 2275.0000	1+
644.4270 1288.0000
658.1717 5599.0000	1+
668.1759 1282.0000	1+
673.1776 841.0000
676.0189 1134.0000	1+
676.1268 750.0000
677.7085 4745.0000	2+
681.6736 1838.0000	1+
682.1726 1486.0000	2+
685.8815 3526.0000	1+
686.7193 6029.0000	2+
693.3021 1931.0000
696.1569 1227.0000
696.5259 3012.0000	1+
699.1727 1942.0000
701.1930 8964.0000	1+
704.1769 1112.0000
705.6774 1753.0000
708.1662 2344.0000	1+
709.1204 7413.0000	1+
710.1113 9204.0000	2+
711.9632 2567.0000	2+
713.1215 7356.0000	1+
723.1073 2695.0000
723.6460 6105.0000	1+
732.1774 702.0000
745.0512 769.0000	1+
753.2797 711.0000
770.1938 1273.0000	1+
788.2911 14325.0000	1+
828.1802 1196.0000
853.1780 714.0000
881.2126 1899.0000	1+
884.2439 1087.0000
899.2553 2355.0000
900.1512 7156.0000	1+
917.2623 16422.0000	1+
953.2139 2262.0000	1+
956.1834 1276.0000
971.2954 8378.0000	1+
984.0601 819.0000
998.1772 719.0000
1014.1778 1985.0000
1028.2992 991.0000
1032.2491 4869.0000	1+
1085.2447 846.0000
1086.3791 891.0000
1097.4271 1097.0000
1103.3271 12787.0000	1+
1202.2622 5797.0000	1+
1317.4217 5545.0000	1+
1335.2036 1319.0000
1335.4385 1145.0000
1336.3042 1703.0000
END IONS

BEGIN IONS
TITLE=Cmpd 839, +MSn(336.2054), 17.0 min
PEPMASS=336.2054 201964.0
CHARGE=2+

114.8228 661.0000	1+
146.8083 1463.0000	1+
162.0523 580.0000
170.6759 1204.0000	1+
174.8018 623.0000
182.9429 1048.0000
198.8656 434.0000	1+
200.5524 687.0000
217.9563 1948.0000
226.6860 436.0000
227.7848 2346.0000
278.9658 5580.0000	2+
288.0115 1025.0000	1+
290.8013 623.0000
292.0538 564.0000
307.6757 2440.0000	3+
309.9294 680.0000
311.6775 1337.0000
312.9947 3909.0000	2+
313.5710 3048.0000	3+
316.0695 2183.0000	3+
342.0580 494.0000
353.0518 817.0000
353.8421 1230.0000	1+
360.5520 1875.0000
363.0521 1446.0000
370.0741 2342.0000	1+
373.0325 1624.0000	1+
377.6804 634.0000
384.0537 754.0000
385.4006 1685.0000
386.9771 803.0000
397.0520 465.0000
400.0006 1103.0000
401.2629 705.0000
407.0882 1325.0000
410.0521 1869.0000
413.5444 1533.0000	2+
415.5628 9108.0000	2+
417.5539 1356.0000
419.0626 2585.0000
421.0523 924.0000
424.5536 9770.0000
434.4740 1242.0000
437.9749 1484.0000	2+
439.9472 744.0000	1+
441.9800 2287.0000	2+
444.1703 13100.0000	2+
446.0325 2952.0000	1+
446.9176 702.0000	2+
448.0463 6084.0000	2+
449.5510 2071.0000	1+
450.6063 1499.0000	2+
453.6162 1630.0000
454.3237 7233.0000	2+
456.0930 581.0000
459.5264 9048.0000	2+
460.0452 7203.0000	1+
462.0997 1230.0000
464.4267 690.0000
466.1204 1725.0000	2+
467.9347 1020.0000
470.2169 839.0000	1+
475.9726 4560.0000	2+
479.0517 765.0000
479.6213 1592.0000	2+
482.1830 795.0000
483.0431 3420.0000	1+
485.1592 5810.0000	1+
486.2212 3154.0000	2+
488.0419 4475.0000	1+
495.0789 674.0000	1+
502.0530 687.0000
503.0673 2001.0000
525.2355 3038.0000	1+
536.9457 776.0000
542.1764 561.0000
557.2709 3762.0000	1+
566.2374 440.0000
571.1823 742.0000
573.1819 825.0000	1+
603.0161 1819.0000	1+
611.0509 931.0000	1+
634.0617 909.0000
638.1776 899.0000
645.1987 1700.0000
675.3021 1074.0000
683.9282 817.0000
724.3067 745.0000
782.4268 852.0000
789.1764 472.0000
END IONS

BEGIN IONS
TITLE=Cmpd 819, +MSn(566.2628), 16.7 min
PEPMASS=566.2628 95978.0
CHARGE=2+

128.9734 3647.0000
135.9232 4351.0000
174.8335 21401.0000	1+
192.8053 7033.0000
220.8708 9703.0000	1+
267.7374 3785.0000
270.8727 7305.0000	1+
274.9914 6671.0000
283.9269 3451.0000
284.9644 13831.0000	1+
303.0403 169602.0000	1+
319.9728 10727.0000	1+
333.9147 3280.0000
351.1461 15851.0000	2+
360.9270 3506.0000
385.1280 7107.0000	1+
392.7254 4899.0000	2+
400.0818 6425.0000
401.6008 22456.0000	2+
412.5813 12819.0000	2+
415.0853 3862.0000
418.0788 25058.0000	1+
421.1133 10287.0000	2+
423.1733 3234.0000
425.6125 9358.0000	1+
427.2676 3643.0000
432.5930 11217.0000	2+
434.1021 11171.0000	2+
436.5824 6060.0000	2+
443.0887 29863.0000	2+
452.1017 381172.0000
454.0646 11360.0000	1+
470.0747 6667.0000
482.1234 12729.0000	1+
487.9002 10545.0000	2+
491.6778 3387.0000
491.9536 6561.0000	2+
493.4531 34269.0000
500.1770 6116.0000
500.6078 3186.0000
501.1153 11098.0000	1+
509.6756 25945.0000
512.6900 4180.0000
513.1546 14491.0000	1+
514.7917 3751.0000
516.1856 11969.0000	1+
517.5106 4349.0000
522.1659 13400.0000	1+
526.1622 31464.0000	2+
528.5525 4955.0000
530.1721 5804.0000
531.2436 42729.0000	1+
533.6719 3639.0000
534.1516 16067.0000	1+
535.6295 9384.0000	1+
538.5008 25684.0000	1+
541.4266 4463.0000
543.0724 5916.0000
543.4396 10454.0000	1+
548.1685 39142.0000
548.6245 29485.0000	1+
554.1408 3321.0000
555.0190 4997.0000
557.1863 8211.0000
557.6169 9859.0000
583.1203 32129.0000	2+
601.1805 31002.0000	1+
633.7053 71929.0000	2+
644.1997 11122.0000	1+
653.1750 6196.0000	1+
671.1760 3329.0000
674.3132 3737.0000
678.2888 3187.0000
679.4306 3409.0000
680.2878 3115.0000
681.1718 22977.0000	2+
683.2758 4348.0000
690.1968 44939.0000
690.6420 37473.0000	1+
696.3110 6635.0000
698.1075 3261.0000
701.2850 38573.0000	1+
714.2894 18060.0000	1+
715.2069 14870.0000	2+
716.1935 9852.0000	1+
726.4280 7549.0000
730.7104 4973.0000
731.3140 7027.0000	1+
734.3024 3520.0000
739.7469 22122.0000
740.2098 26756.0000	1+
756.1775 5902.0000	1+
767.5899 7113.0000	1+
775.3021 4158.0000
781.0601 4993.0000
784.4435 8283.0000	1+
793.2769 3591.0000
802.1943 14575.0000	1+
811.2947 25355.0000	1+
813.0525 3392.0000
829.2546 101651.0000	1+
885.4197 3666.0000
903.2145 7348.0000	1+
985.3699 21310.0000	1+
1003.4878 14416.0000	1+
END IONS

BEGIN IONS
TITLE=Cmpd 820, +MSn(617.2419), 16.7 min
PEPMASS=617.2419 106828.0
CHARGE=2+

130.9242 5026.0000	1+
156.8261 2888.0000
165.9016 3488.0000
180.8471 2230.0000
185.7209 2606.0000
197.8757 3972.0000
207.8402 10496.0000	1+
223.8594 3715.0000
224.8467 20761.0000	1+
241.8965 65736.0000	1+
256.9875 2449.0000	1+
280.9023 8808.0000	1+
284.9244 3635.0000	1+
294.0758 8035.0000	2+
299.0063 41626.0000	1+
310.0735 3542.0000	1+
311.9214 3921.0000	1+
323.1289 2617.0000	1+
325.1125 2644.0000
327.0752 5735.0000	1+
331.0834 3558.0000	2+
349.0110 4476.0000	1+
351.9597 4019.0000
353.0298 13725.0000	1+
353.9769 4698.0000	2+
355.0234 8376.0000	1+
366.1690 7461.0000
367.1306 11499.0000	1+
370.1066 9841.0000	1+
377.2860 4424.0000	1+
381.0508 25049.0000	1+
384.1304 52856.0000	1+
394.2260 5108.0000
395.1087 11645.0000	1+
402.9264 2895.0000	1+
412.1059 47946.0000	1+
421.6772 2334.0000
424.6771 3136.0000
436.5519 3700.0000
438.2255 4058.0000	1+
441.9748 3885.0000	2+
448.0521 5541.0000	1+
449.5825 4578.0000	1+
455.0598 5342.0000	1+
458.0526 2556.0000
461.1777 2125.0000
465.0745 2525.0000
466.1016 6710.0000	1+
468.1588 6996.0000
471.6774 2527.0000
474.1772 3745.0000
478.1169 9527.0000	1+
481.0424 5386.0000	1+
483.1917 14179.0000	1+
488.6720 4673.0000	2+
493.9292 2317.0000
495.0708 43514.0000	1+
496.0830 21897.0000	2+
499.1766 2259.0000
501.5540 3270.0000
506.5504 2334.0000
513.1745 2944.0000
517.5527 2264.0000
521.0970 3979.0000	2+
523.0810 8262.0000	2+
543.5481 2353.0000
544.5105 10971.0000	1+
549.1590 4971.0000	1+
551.6672 18123.0000	1+
557.5543 2602.0000
560.5974 48593.0000	2+
565.6857 11715.0000
566.1718 14604.0000	1+
569.3020 3195.0000
569.7370 12443.0000	1+
575.0854 7760.0000	1+
576.9385 26118.0000	1+
578.4016 27993.0000	2+
579.4569 21048.0000	1+
582.0670 4967.0000
582.4922 12193.0000	1+
586.0496 8753.0000	1+
587.1443 6638.0000	1+
589.4953 9918.0000	1+
591.1374 64041.0000	2+
593.1687 3617.0000
594.1979 29041.0000	1+
596.1759 7767.0000	2+
597.7079 4365.0000
597.9450 4641.0000
599.6717 116116.0000
600.1613 138375.0000
601.4872 8856.0000	1+
604.1714 7830.0000
605.1848 3723.0000	1+
608.6668 14838.0000
609.1385 2424.0000
611.4462 4731.0000	2+
613.1748 3358.0000
614.2990 5433.0000	1+
623.4210 4961.0000
625.6743 4906.0000	1+
641.3021 2645.0000
666.0529 2096.0000
702.8025 2303.0000
705.1497 6094.0000	1+
714.8197 2693.0000
717.0766 2185.0000	1+
722.2476 8936.0000	1+
728.4317 3688.0000
734.2412 16439.0000	1+
739.2406 14547.0000	1+
751.2538 64593.0000	1+
767.1922 6340.0000
768.5521 3913.0000
788.2512 4894.0000	1+
798.3008 2303.0000	1+
804.1612 11594.0000	1+
814.6870 5324.0000	1+
822.2974 226900.0000	1+
830.1285 5368.0000	1+
836.2616 14371.0000	1+
847.1775 3299.0000
852.3231 8308.0000	1+
905.3372 3386.0000	1+
912.2703 2434.0000
923.3256 4944.0000	1+
935.3578 23791.0000	1+
940.2843 8591.0000
974.3496 15979.0000	1+
992.3300 202601.0000	1+
1052.3898 6695.0000	1+
1069.4222 11531.0000	1+
1087.3349 8017.0000	1+
END IONS

BEGIN IONS
TITLE=Cmpd 821, +MSn(377.8443), 16.8 min
PEPMASS=377.8443 83736.0
CHARGE=3+

146.9220 739.0000
151.8020 8046.0000	2+
164.8027 582.0000
182.7903 5734.0000	1+
200.8384 5635.0000	1+
228.8093 11737.0000	1+
241.0520 898.0000
265.8764 2490.0000	2+
267.5525 593.0000
271.6999 682.0000
273.8243 575.0000
276.3022 1150.0000
285.9276 1034.0000
287.9302 1241.0000
303.0076 4661.0000	1+
326.7279 599.0000
334.0523 636.0000
339.9266 615.0000
345.8506 1781.0000	2+
351.0172 2913.0000
354.3591 1589.0000
357.0554 1024.0000
357.5566 3147.0000	2+
358.5045 1366.0000
360.1868 3295.0000	1+
363.6791 604.0000
365.7174 5130.0000
393.1531 597.0000
395.0622 867.0000
399.7843 1045.0000
401.6746 3508.0000	2+
403.9407 1664.0000	1+
405.8182 915.0000
411.5525 943.0000
412.5473 2739.0000	1+
415.1268 1536.0000	2+
416.0562 7911.0000	1+
421.1160 2280.0000	2+
425.0514 804.0000
426.0697 1776.0000	1+
428.6695 1520.0000
429.5528 2553.0000	1+
433.4201 563.0000
434.1177 715.0000
436.5558 816.0000
438.4272 1891.0000
443.0546 8024.0000	1+
443.0756 6881.0000	2+
446.1545 1473.0000
448.5513 3102.0000	1+
451.1136 1034.0000
452.0580 105051.0000	2+
456.3534 1733.0000	2+
462.1210 1948.0000	1+
464.0514 637.0000
465.5521 747.0000
467.9709 3055.0000	2+
469.9268 1031.0000
470.6770 2413.0000
472.0582 2503.0000	1+
474.6282 1862.0000	1+
475.5001 1706.0000	2+
478.0634 1909.0000	1+
480.1183 2372.0000	1+
481.5068 2224.0000	2+
482.6910 2104.0000	2+
484.0520 1076.0000
485.5735 1135.0000	2+
488.0697 2234.0000	1+
491.6914 1133.0000
500.6033 18021.0000
501.0623 10965.0000
509.5851 36525.0000	2+
531.2640 591.0000
535.1775 668.0000
538.1773 583.0000
553.1788 939.0000
556.0909 702.0000
583.2529 1416.0000	1+
601.1525 846.0000
602.1752 2018.0000	1+
611.5575 923.0000	1+
627.3030 567.0000
700.2838 2157.0000	1+
717.1770 643.0000
775.3024 938.0000
811.2360 1109.0000	1+
829.0640 762.0000
830.4276 753.0000
END IONS

BEGIN IONS
TITLE=Cmpd 826, +MSn(617.2499), 16.8 min
PEPMASS=617.2499 1442770.0
CHARGE=2+

129.9178 62025.0000	1+
146.8902 32768.0000
161.6771 16987.0000
166.6776 17274.0000
185.8034 22039.0000
196.8022 44468.0000	1+
207.7949 65134.0000
224.7377 194614.0000	1+
241.8970 449538.0000
279.6775 26628.0000
281.0259 30688.0000
281.8656 47593.0000	1+
284.0412 19783.0000
293.9237 104371.0000	1+
298.9980 262856.0000	1+
300.9098 26481.0000
313.0517 19738.0000
321.6943 24804.0000
325.0220 25383.0000
327.1595 48384.0000
328.9277 23919.0000
349.1419 36961.0000	1+
353.0654 93875.0000
356.0526 51537.0000
366.8888 81056.0000	1+
369.9789 53802.0000
376.9308 24374.0000
381.1231 205935.0000	1+
384.0613 402346.0000	1+
394.1535 124647.0000	1+
397.0523 32555.0000
403.0524 22036.0000
409.8052 16534.0000
412.0965 344441.0000	1+
438.0040 55362.0000
455.1883 82464.0000	1+
466.0843 26574.0000	1+
478.0548 33447.0000	1+
481.0664 30984.0000
483.1303 146515.0000	1+
488.0525 67768.0000
495.1297 237136.0000	1+
496.0909 185728.0000	2+
498.0523 17674.0000
516.1790 22270.0000
543.6290 22413.0000
549.0527 19282.0000
551.5827 76284.0000
552.0858 150383.0000	1+
558.5525 50272.0000
560.6574 225067.0000	1+
565.5511 286066.0000	1+
572.9262 18820.0000
582.5527 68177.0000
583.0302 37607.0000	1+
585.6412 227868.0000	2+
591.1482 308500.0000	1+
592.2727 115761.0000	2+
594.1359 283047.0000	2+
599.6558 2833382.0000	2+
603.5549 24594.0000
605.2137 71503.0000
608.7006 112650.0000
614.4282 23034.0000
624.1766 36586.0000	1+
687.4271 24582.0000
701.4265 19279.0000
721.1793 16857.0000
722.1701 51507.0000	1+
724.1775 26856.0000
733.0901 26262.0000
734.1699 124984.0000	1+
737.1333 29222.0000
738.2836 65577.0000	1+
751.2097 458781.0000	1+
772.7035 17578.0000
796.5541 25253.0000
805.2376 66447.0000
808.3015 19279.0000
822.2699 1750217.0000	1+
825.0399 32616.0000
836.3548 63838.0000	1+
844.2453 21501.0000
853.2546 76623.0000	1+
923.3144 51922.0000	1+
935.3032 151751.0000	1+
940.3167 31284.0000
974.2662 117939.0000	1+
992.3369 1735823.0000	1+
1052.2117 83070.0000	2+
1087.3896 153810.0000	1+
END IONS

BEGIN IONS
TITLE=Cmpd 827, +MSn(566.2390), 16.8 min
PEPMASS=566.239 232016.0
CHARGE=2+

156.7149 3253.0000
174.8611 4990.0000
184.6779 4171.0000
192.8937 3103.0000	1+
216.7245 4784.0000
220.7471 2943.0000
228.8025 3082.0000
241.8021 3985.0000
271.8036 2896.0000
299.6772 3763.0000
303.0414 42381.0000	1+
320.0257 5103.0000
337.6813 4649.0000
341.1240 3117.0000	1+
350.9895 15649.0000	2+
356.0529 3082.0000
362.6774 3081.0000
367.9286 3676.0000
395.0984 5233.0000
399.0045 6060.0000	1+
401.6224 6687.0000	2+
410.0521 4410.0000
415.5526 4616.0000
418.0531 15228.0000
421.0563 5531.0000
425.1076 10348.0000	2+
430.1117 10425.0000	1+
432.9596 2759.0000
434.5522 9968.0000
436.0507 4117.0000	1+
443.0938 4028.0000
452.0707 149679.0000
453.5202 4935.0000
455.1861 3357.0000
469.1361 6375.0000	1+
494.0521 9233.0000
499.6302 5737.0000	1+
504.5517 3734.0000
508.5840 6086.0000	1+
512.5961 7933.0000
513.1621 14522.0000
515.0839 4469.0000	1+
523.8024 5924.0000
526.2035 4734.0000
526.4439 3947.0000
529.1559 4824.0000	1+
531.0961 10065.0000	1+
534.4270 3347.0000
537.9305 14048.0000	1+
540.7712 5966.0000
547.5530 17127.0000	1+
548.1929 17334.0000
583.1812 4948.0000
601.1610 10318.0000	1+
633.7327 8291.0000
633.8803 8405.0000
638.4273 3793.0000
644.1871 4523.0000	1+
668.3814 2410.0000	1+
671.9361 3327.0000
674.1141 3110.0000
679.3188 7949.0000	1+
681.0932 6459.0000
683.1373 2983.0000
690.1934 12349.0000	1+
690.4675 8396.0000
701.3658 10577.0000	1+
713.2054 8760.0000	1+
716.0528 2789.0000
730.6774 3321.0000
739.6334 27528.0000	2+
745.1779 2816.0000
767.2992 3393.0000	1+
784.1814 3907.0000	1+
793.2060 6062.0000	1+
802.2375 9183.0000	1+
811.3028 6291.0000
829.2465 23591.0000	1+
885.1893 3633.0000	1+
902.3408 5717.0000	1+
985.2153 4075.0000
986.5519 10088.0000	1+
1003.3348 4052.0000
END IONS

BEGIN IONS
TITLE=Cmpd 830, +MSn(411.8460), 16.9 min
PEPMASS=411.846 161564.0
CHARGE=3+

100.8059 4316.0000
116.9271 3949.0000
128.8507 15689.0000	1+
146.9091 13067.0000	1+
171.8086 6638.0000	1+
180.8734 2594.0000	1+
182.8577 3406.0000
196.8021 2471.0000	1+
199.8149 28201.0000	1+
216.8323 3380.0000
230.8023 6904.0000
239.4368 14145.0000	2+
239.8669 9672.0000	1+
241.8631 27750.0000
247.9273 13568.0000
256.8912 4470.0000	1+
261.9270 2589.0000
268.7907 3734.0000
283.0520 7875.0000	1+
284.4120 6683.0000	2+
288.1484 3334.0000
291.9714 4797.0000
294.0432 7469.0000
297.0547 9566.0000	3+
298.4962 15643.0000	2+
298.9969 12925.0000	1+
302.9806 31916.0000	3+
302.9934 24547.0000	1+
305.9893 148369.0000	2+
309.2424 3912.0000
310.8295 6502.0000	3+
312.0480 32411.0000	2+
314.4955 19319.0000
320.1765 2588.0000
327.0027 5479.0000
327.9536 19480.0000	1+
329.1160 4353.0000	3+
334.6773 4262.0000
343.5988 7501.0000	1+
350.5525 4950.0000
354.1825 10414.0000	1+
355.9662 3820.0000	2+
358.4901 19903.0000	2+
361.6734 23120.0000
365.5787 5452.0000	2+
367.0359 61757.0000	2+
370.0921 56747.0000	1+
375.9358 52480.0000	2+
381.0564 36284.0000	1+
383.2769 8923.0000
384.1804 48200.0000	1+
391.7006 5639.0000
392.9741 20692.0000	1+
393.3102 5402.0000
393.9468 77851.0000	2+
395.9955 6526.0000	2+
398.5523 7488.0000
399.9681 74905.0000	2+
425.0156 9962.0000
426.9971 43786.0000	2+
438.1784 2722.0000
442.0273 8840.0000
450.6088 3169.0000	2+
453.0813 4356.0000	2+
454.1655 6102.0000	1+
460.2836 7771.0000
461.5524 3325.0000
462.1738 4019.0000
462.5776 13267.0000	2+
464.5501 4202.0000	2+
466.0321 18047.0000	1+
470.5526 11314.0000
476.9554 2665.0000
477.8664 7333.0000	1+
478.0322 7271.0000	2+
483.1531 75481.0000	1+
487.5478 14044.0000	2+
490.4991 7006.0000	1+
493.2174 4458.0000	1+
495.0975 130600.0000	1+
496.0903 42612.0000	2+
497.6544 5772.0000
499.1368 10147.0000	2+
500.1941 40285.0000	1+
501.3753 12284.0000	2+
509.5520 6015.0000
521.5887 5371.0000
527.5578 4071.0000
535.0678 10431.0000
535.6043 10131.0000
548.2974 5515.0000	1+
551.1174 13534.0000	1+
554.9271 3146.0000
556.8025 4569.0000
571.0527 2767.0000
587.0526 2744.0000
594.0880 4756.0000
600.5452 3106.0000
605.1763 5077.0000
606.1123 24477.0000	1+
608.6773 5199.0000
609.0505 2753.0000
610.9712 31676.0000	1+
622.5554 3249.0000
623.0887 124843.0000	1+
626.1682 5700.0000
629.0505 5222.0000	1+
673.2789 4191.0000	1+
702.3041 2900.0000	1+
706.1063 3872.0000
716.9762 3691.0000	1+
734.0678 15531.0000	1+
739.1771 3466.0000	1+
822.1750 1794.0000	1+
922.3505 3927.0000
END IONS

BEGIN IONS
TITLE=Cmpd 832, +MSn(716.1611), 16.9 min
PEPMASS=716.1611 14802.0
CHARGE=2+

218.7434 1757.0000
247.8465 7358.0000	1+
275.8974 5683.0000	1+
297.0521 1529.0000
314.8766 1461.0000	1+
333.1382 2191.0000
386.1082 2818.0000	1+
391.1096 5096.0000
405.0304 3580.0000	1+
408.1360 2016.0000	1+
423.9254 2978.0000	1+
438.9928 1235.0000	1+
448.9285 2051.0000
461.0514 1146.0000	1+
463.1021 1790.0000
470.9277 1599.0000
471.9420 2214.0000	1+
484.0081 2536.0000	1+
488.0882 1078.0000	1+
488.9538 1692.0000	2+
490.9316 1708.0000
496.7436 1904.0000	2+
502.0844 77007.0000	1+
516.0600 7570.0000
516.5281 2563.0000
516.9813 5109.0000	1+
519.2052 3284.0000
524.9552 3625.0000
533.0390 30940.0000	1+
538.8026 1621.0000
542.1605 2896.0000	1+
547.0519 1820.0000
553.3693 1322.0000	1+
555.2615 4042.0000
559.1257 9237.0000	1+
566.1859 2889.0000
573.1255 8799.0000	1+
574.1057 5821.0000	1+
585.2416 2339.0000	1+
588.2245 3137.0000	1+
602.0976 1420.0000	1+
604.1891 3370.0000
605.1595 10261.0000	2+
612.0594 1979.0000
615.1889 2413.0000	1+
616.9764 2773.0000
623.5854 2282.0000
630.0556 3195.0000
630.2228 4460.0000	1+
632.1761 24612.0000	1+
643.5520 1650.0000
648.0662 1742.0000
650.4091 4735.0000	1+
655.6750 4728.0000	1+
661.0727 7894.0000	2+
662.6863 49452.0000
663.1270 36172.0000
664.6188 9055.0000	1+
667.1591 2112.0000
669.2694 3229.0000	1+
670.9739 4307.0000	1+
675.6774 1622.0000
677.3021 1784.0000
679.5379 1617.0000
680.3508 7156.0000	1+
682.8024 3383.0000
684.5517 1593.0000
686.1527 3798.0000
687.1911 14512.0000	1+
691.0800 11784.0000	3+
692.6757 2075.0000
693.6184 7498.0000	1+
696.0919 7672.0000	1+
697.1753 12738.0000	2+
699.2151 3507.0000
700.4993 3648.0000
706.0550 8856.0000	2+
708.0876 1782.0000	1+
714.0991 4977.0000	1+
729.2620 1451.0000	1+
747.2246 5057.0000
755.1787 4966.0000
770.1794 2071.0000
802.2067 28183.0000	1+
804.9496 2366.0000
812.2134 1725.0000	1+
828.5523 2091.0000
843.1498 4838.0000	1+
857.2716 3260.0000
858.1798 5542.0000	1+
861.1699 5639.0000	1+
865.7706 4511.0000	1+
875.1564 4464.0000	1+
880.0497 1642.0000	1+
906.1773 2827.0000
915.2511 20183.0000	1+
918.3033 2546.0000
929.0531 1726.0000
930.2230 1585.0000	1+
932.2060 49381.0000	1+
981.3026 1657.0000
1043.2842 7106.0000	1+
1140.5193 2359.0000
1158.3309 8617.0000	1+
1230.2809 2269.0000
1270.1842 3085.0000
1287.3692 5781.0000
1289.4277 3229.0000
END IONS

BEGIN IONS
TITLE=Cmpd 833, +MSn(687.8603), 16.9 min
PEPMASS=687.8603 23837.0
CHARGE=3+

190.8579 5215.0000	1+
243.8155 6493.0000	1+
257.9424 14150.0000	1+
275.3033 3495.0000
275.9422 15843.0000	1+
333.9749 19597.0000	1+
350.9609 3822.0000
356.0001 8000.0000	1+
358.0523 3043.0000
374.8047 3130.0000
386.9466 6599.0000
405.1542 3412.0000
428.0688 3295.0000
443.0014 3796.0000
462.0350 13254.0000	1+
466.1231 17292.0000	1+
472.0847 6250.0000	1+
484.1514 27211.0000	1+
498.0456 3036.0000
502.1368 492761.0000	1+
513.0972 18684.0000	2+
522.1304 10400.0000	2+
525.0206 7448.0000	1+
530.1355 12540.0000	1+
540.0621 16420.0000	1+
547.1465 11134.0000	1+
548.5259 3671.0000
555.1181 3281.0000
557.1970 6860.0000
558.0230 37506.0000	1+
561.4946 3789.0000
562.6336 5354.0000
568.3031 3084.0000
571.1373 12429.0000	2+
573.1730 87378.0000	1+
575.1527 77274.0000	1+
579.6728 38587.0000
580.1576 29706.0000
598.8070 3844.0000
605.5330 3055.0000
614.0522 4217.0000
614.4030 3852.0000
617.1337 6675.0000
621.1769 6741.0000	1+
624.6816 3626.0000
628.5531 3864.0000
629.0634 16392.0000	1+
634.1780 5381.0000
634.5412 5695.0000
636.1772 5266.0000
636.4251 12569.0000	1+
640.2123 9542.0000	1+
645.1965 5595.0000
646.8032 3462.0000
648.7565 5139.0000
651.8335 22893.0000
652.4519 41735.0000	2+
657.1025 19365.0000	1+
661.9834 3585.0000
666.5971 11689.0000	1+
668.1976 3666.0000
670.2830 6240.0000
671.1537 45607.0000	2+
674.5379 4104.0000
679.4603 3314.0000
680.1339 15857.0000
685.2506 37328.0000	1+
707.0544 3184.0000
743.2191 7741.0000	1+
769.0086 11738.0000	1+
785.1757 9346.0000	1+
787.1486 36115.0000	1+
802.2028 205892.0000	1+
823.1519 4488.0000
840.1703 32836.0000	1+
857.2868 10156.0000
858.2111 190524.0000	1+
875.2006 156170.0000	1+
887.8022 3379.0000
892.3020 3162.0000
915.2275 60289.0000	1+
946.6775 3545.0000
1026.1906 6808.0000	1+
1043.2534 11624.0000	1+
1084.3022 3504.0000
1101.3215 11302.0000
1102.4016 3503.0000
1156.0522 3203.0000
1158.3653 11369.0000
1160.3649 3258.0000
1213.3129 3364.0000
1230.3796 20610.0000	1+
END IONS

BEGIN IONS
TITLE=Cmpd 834, +MSn(740.7849), 16.9 min
PEPMASS=740.7849 72871.0
CHARGE=2+

256.6778 1077.0000
261.6778 1532.0000
262.9271 1680.0000
309.6778 1126.0000
316.0561 2426.0000
333.1030 3021.0000
380.9276 1206.0000
408.0523 1961.0000
424.9095 1056.0000
446.0829 4996.0000	1+
479.9909 1202.0000	1+
519.6762 2445.0000	1+
537.2607 2440.0000	1+
545.1453 5368.0000	1+
548.3020 1107.0000
552.2712 1519.0000
561.3432 2532.0000	1+
562.9455 2953.0000	1+
566.6771 1350.0000
573.1784 1048.0000
574.5526 4640.0000	1+
580.1774 3497.0000	1+
583.0522 1089.0000
583.6719 991.0000
594.2106 6290.0000	2+
605.6716 3678.0000	1+
607.2563 4563.0000	1+
615.6775 1818.0000
618.2882 3488.0000
625.5722 3231.0000
632.0974 6446.0000	1+
634.1226 14101.0000	2+
639.0068 3366.0000	1+
643.5762 1757.0000
660.7343 4335.0000	1+
661.0753 1949.0000
662.4219 2058.0000
668.0748 1667.0000
669.6592 15413.0000	2+
674.2339 8896.0000	1+
675.9535 1719.0000
682.4203 2553.0000
686.6782 5820.0000	2+
688.5990 1282.0000
690.0547 1513.0000
694.3810 2331.0000
696.3018 2762.0000	1+
699.1762 4126.0000	1+
700.9406 1019.0000
702.3023 1453.0000
703.6773 1890.0000
705.1621 2079.0000
706.5521 1400.0000
709.4274 2916.0000
712.1770 1069.0000
713.0664 6305.0000	2+
717.8022 1279.0000
720.3304 2469.0000	1+
722.1820 13656.0000	1+
723.1615 11332.0000	2+
723.7111 8146.0000	3+
732.1995 6746.0000	2+
739.1459 4214.0000	1+
787.2830 2820.0000	1+
789.0679 1380.0000
807.3028 1050.0000
835.1878 1092.0000
864.3028 1450.0000
886.4289 1740.0000
901.2972 13266.0000	1+
936.2766 2006.0000	1+
964.4290 1460.0000
1035.3021 1023.0000
1036.5184 1514.0000
1038.3478 11110.0000	1+
1074.9285 1060.0000
1087.4279 1060.0000
1131.4341 1949.0000
1148.3279 1887.0000
1149.5520 1160.0000
1166.5868 1096.0000
1307.3024 1136.0000
END IONS

BEGIN IONS
TITLE=Cmpd 835, +MSn(476.2215), 16.9 min
PEPMASS=476.2215 87522.0
CHARGE=2+

100.8690 1605.0000	1+
120.8723 2351.0000	1+
129.9985 3169.0000	1+
131.8219 2367.0000
141.8730 4300.0000	1+
158.9129 2382.0000
165.8162 2606.0000	1+
175.0324 1491.0000
177.8027 1512.0000
186.8411 32068.0000	1+
214.8509 29719.0000	1+
223.6775 1484.0000
247.0991 2459.0000	2+
248.8024 1571.0000
250.9380 2820.0000	1+
252.9274 3350.0000
260.8021 2192.0000
261.8853 7547.0000	1+
273.8134 1701.0000	1+
287.8687 6376.0000	1+
307.9071 2800.0000
316.8349 1822.0000	3+
333.0613 4867.0000
346.8018 1388.0000
351.0187 3284.0000
359.9324 1743.0000
362.0253 6983.0000
367.5522 2025.0000
368.9248 13250.0000	1+
375.5525 1748.0000
377.5523 3387.0000
387.2108 3696.0000	1+
401.0527 1498.0000
404.0889 10332.0000
406.0084 4375.0000	1+
416.6700 3168.0000	2+
419.1326 6266.0000	1+
421.5521 5689.0000
423.5521 5619.0000
432.9270 1998.0000
439.7591 6515.0000	2+
443.9016 5160.0000	1+
444.8310 10865.0000	2+
446.5392 7675.0000	2+
448.0732 4925.0000
449.3301 9945.0000
452.4741 3358.0000	1+
455.0524 1998.0000
455.9930 4371.0000	1+
457.0736 1875.0000
457.9940 2165.0000	1+
460.0637 2810.0000	2+
461.3032 1462.0000
463.5788 2217.0000
464.6143 10146.0000	2+
488.9349 1842.0000
497.3024 3815.0000
502.0851 1980.0000
503.0874 5932.0000	1+
522.8023 2656.0000
530.1453 3438.0000
533.2341 4902.0000	1+
548.0930 1936.0000	1+
550.1939 2310.0000
559.8120 2308.0000
564.5522 3448.0000
569.6773 2912.0000
571.9272 3460.0000
574.4926 1644.0000
590.1411 11826.0000
602.1137 2626.0000	1+
612.5525 2705.0000
619.1738 3018.0000	1+
624.0520 3274.0000
625.6782 3534.0000
641.0548 2429.0000
645.1665 5245.0000	1+
646.0936 5709.0000	2+
658.1775 5649.0000	1+
661.0545 1669.0000
684.2972 3285.0000	1+
688.3197 2566.0000
690.1766 5357.0000
737.2153 97999.0000	1+
755.2820 2091.0000
758.3039 5342.0000	1+
765.3025 1595.0000
777.2022 1575.0000
820.3021 2595.0000	1+
END IONS

BEGIN IONS
TITLE=Cmpd 836, +MSn(688.7047), 16.9 min
PEPMASS=688.7046 613087.0
CHARGE=2+

146.8945 33699.0000	1+
190.8865 41733.0000	1+
219.0007 31089.0000	1+
243.7871 63504.0000	1+
257.9708 22039.0000	1+
262.8474 10471.0000
275.9438 53045.0000	1+
282.0527 10762.0000
316.9268 10958.0000
334.0040 83810.0000	1+
357.0202 13931.0000
375.0525 10661.0000
387.0573 47332.0000	1+
391.0606 35533.0000	1+
405.0961 22740.0000
415.0476 12077.0000
443.9814 24372.0000	1+
462.1354 86890.0000	1+
469.1765 11358.0000
472.2563 10626.0000
484.0826 47139.0000	1+
502.1508 1893942.0000	1+
513.1632 40909.0000
513.6511 31921.0000
522.1760 43049.0000	1+
525.0740 22399.0000	1+
531.0782 13064.0000
536.9269 11857.0000
540.0340 86050.0000	1+
547.1756 52422.0000	1+
554.2287 56756.0000	1+
557.1605 30929.0000
558.1301 137989.0000	1+
562.1484 92276.0000	2+
564.5520 18014.0000
571.9326 11967.0000
573.1324 438038.0000	1+
575.0721 327257.0000	1+
579.5809 417446.0000	2+
592.6894 11783.0000
607.5530 12158.0000
621.3503 16807.0000
634.1001 39305.0000	1+
645.3064 47345.0000	1+
649.1766 19228.0000
652.2638 82331.0000	1+
654.5530 26607.0000
657.1376 15234.0000
658.0540 44185.0000	1+
661.9126 24886.0000	1+
667.1769 15543.0000
670.0916 142508.0000	1+
671.5772 42329.0000
672.1511 100927.0000	1+
674.6739 12760.0000
679.3893 32005.0000	1+
680.1614 86787.0000	2+
683.7745 29623.0000
685.0928 31712.0000	1+
687.1768 13422.0000
728.0527 10480.0000
743.2361 32583.0000
769.2184 10743.0000
770.1795 69220.0000	1+
784.1772 10362.0000
786.2326 157197.0000	1+
802.2210 731111.0000	1+
821.8024 24511.0000
830.1774 23667.0000
840.2600 42027.0000
840.8174 23017.0000
841.2306 125095.0000	1+
857.2153 88799.0000
858.1979 920997.0000	1+
875.2012 758253.0000	1+
898.1775 22536.0000
915.2893 223722.0000	1+
955.1567 21118.0000
997.3030 17310.0000
1043.3691 46201.0000
1044.5077 16740.0000
1084.2475 29408.0000
1101.2377 34644.0000
1102.2558 27149.0000
1143.4149 11745.0000
1158.1545 39821.0000	1+
1160.2562 24508.0000
1212.2582 58079.0000	1+
1230.3510 63783.0000
1231.1892 21618.0000
1231.4203 15348.0000
1233.3959 12413.0000
END IONS

BEGIN IONS
TITLE=Cmpd 837, +MSn(411.8453), 17.0 min
PEPMASS=411.8453 319027.0
CHARGE=3+

120.0125 3017.0000	1+
128.8328 17671.0000	1+
146.8824 6350.0000
173.5527 3934.0000
182.6923 3451.0000	1+
199.8115 16676.0000
239.8108 6251.0000
241.8796 33482.0000	2+
248.4269 2446.0000
256.8122 5583.0000	1+
269.8232 4850.0000	1+
283.9507 6244.0000
287.9264 3318.0000	1+
291.9672 9477.0000
293.9787 11212.0000	1+
297.4722 12569.0000	2+
298.0463 10006.0000	3+
299.1655 6862.0000	1+
301.0533 3971.0000
302.9184 11507.0000
303.4011 6135.0000
305.9977 90717.0000	1+
310.9398 8168.0000
312.0483 34427.0000	2+
314.5263 30535.0000	2+
328.0695 9854.0000	1+
333.0528 5378.0000
336.6773 4046.0000
353.5494 4969.0000
354.7143 5153.0000	2+
355.1460 4771.0000	1+
359.5299 6845.0000
361.5532 10894.0000
363.9542 3423.0000
367.0760 46753.0000	2+
370.0312 41737.0000	1+
370.9853 9503.0000	2+
375.0415 6900.0000
375.9704 38009.0000	2+
381.1016 32282.0000	1+
384.1097 34981.0000	1+
391.1282 5371.0000	2+
393.6119 3367.0000
393.9223 42989.0000	1+
399.9943 38772.0000	2+
418.6850 3238.0000
420.9271 3769.0000
425.1132 4265.0000
426.9749 11022.0000
427.5009 21407.0000	2+
434.8022 12979.0000
438.0423 6722.0000	1+
441.1270 8343.0000	1+
442.0741 5521.0000	2+
443.1744 3545.0000
448.0523 3646.0000
452.1237 6356.0000	1+
453.6257 10185.0000	2+
455.2948 6326.0000	1+
456.3865 3694.0000	2+
459.5934 4142.0000
462.0128 8724.0000	2+
466.0815 6754.0000
468.3020 2782.0000
470.5994 15936.0000	2+
476.5759 5321.0000	2+
478.0964 8423.0000	1+
481.1776 3091.0000
483.1683 56913.0000	1+
487.6129 10434.0000
495.1316 105913.0000	1+
497.1466 23932.0000	1+
499.0302 11487.0000	2+
500.1393 33158.0000	1+
509.0542 2765.0000
513.0067 2829.0000	1+
516.1769 3310.0000
526.6795 4399.0000
527.0331 4842.0000
530.0525 3166.0000
535.0685 16049.0000
542.0524 5734.0000
544.1150 7344.0000	2+
561.6779 3119.0000
564.0524 3267.0000
594.0521 14204.0000	1+
605.0425 8874.0000
606.1609 21551.0000	1+
608.8164 3790.0000
609.2859 4452.0000
611.1551 27968.0000	1+
616.0525 3066.0000
620.1864 2617.0000
623.0892 79526.0000	1+
671.4297 6159.0000
708.9272 2495.0000
734.1210 10499.0000	1+
739.1803 3432.0000
752.2219 2663.0000
922.3908 1532.0000	1+
940.0846 3108.0000
END IONS

BEGIN IONS
TITLE=Cmpd 838, +MSn(377.8317), 17.0 min
PEPMASS=377.8317 281580.0
CHARGE=3+

128.9703 1166.0000	1+
151.8832 2426.0000
156.8627 1057.0000
173.9816 1194.0000	1+
182.9217 4880.0000
184.5530 1848.0000
200.8022 3282.0000
212.9273 1802.0000
220.6772 929.0000
227.8487 1113.0000
228.8251 12538.0000	1+
242.9270 1056.0000
251.4287 1021.0000
261.8058 1178.0000
264.8024 1225.0000
266.4271 1090.0000
275.4268 2664.0000	1+
303.0645 1515.0000
306.0530 2261.0000
320.1764 860.0000
322.5587 1266.0000
330.0636 1308.0000	1+
337.3025 2374.0000
342.1762 5966.0000	2+
351.6775 2559.0000
354.0533 1479.0000
357.4983 4136.0000	1+
365.6919 7504.0000
389.1777 1255.0000
401.0889 1763.0000	2+
405.9275 1010.0000
408.0523 3542.0000
412.0565 1450.0000	1+
417.9358 2713.0000	1+
427.4274 1644.0000
429.1333 2943.0000	1+
431.7488 3937.0000	1+
432.6114 2669.0000	2+
437.5728 4323.0000	2+
438.9272 2054.0000
441.8119 3116.0000
443.1030 4993.0000
449.4813 2699.0000
452.0652 83753.0000	2+
455.1772 1423.0000
457.0883 2187.0000
460.5526 1297.0000
464.2161 2148.0000
467.8025 5342.0000
470.6183 4384.0000	1+
471.0333 4962.0000	2+
473.0977 6009.0000	2+
476.2605 1616.0000
479.0530 1687.0000
480.0959 4758.0000	2+
483.0526 1245.0000
486.1266 1931.0000	1+
488.1403 1772.0000
491.5669 2589.0000	2+
499.8022 2062.0000
500.5666 12531.0000	1+
509.5831 33685.0000	1+
531.1455 1954.0000	1+
538.0507 2628.0000	1+
542.1141 1597.0000	1+
571.1414 2188.0000	1+
575.1777 1050.0000
583.0515 953.0000
584.3039 1724.0000
601.0923 890.0000
611.1755 2899.0000	1+
670.3023 1537.0000
713.1777 1710.0000
715.3025 952.0000
759.4336 907.0000
811.0828 1154.0000
812.4278 1825.0000
829.1777 1021.0000
END IONS

